SPECT  

DESCRIPTOR "Argyll Spectral power/reflectance information"
ORIGINATOR "Argyll CMS"
CREATED "Sat Jan  3 20:22:17 2026"
MEAS_TYPE "EMISSION"
SPECTRAL_BANDS "106"
SPECTRAL_START_NM "380.000000"
SPECTRAL_END_NM "730.000000"
SPECTRAL_NORM "1.000000"

NUMBER_OF_FIELDS 106
BEGIN_DATA_FORMAT
SPEC_380 SPEC_383 SPEC_387 SPEC_390 SPEC_393 SPEC_397 SPEC_400 SPEC_403 SPEC_407 SPEC_410 SPEC_413 SPEC_417 SPEC_420 SPEC_423 SPEC_427 SPEC_430 SPEC_433 SPEC_437 SPEC_440 SPEC_443 SPEC_447 SPEC_450 SPEC_453 SPEC_457 SPEC_460 SPEC_463 SPEC_467 SPEC_470 SPEC_473 SPEC_477 SPEC_480 SPEC_483 SPEC_487 SPEC_490 SPEC_493 SPEC_497 SPEC_500 SPEC_503 SPEC_507 SPEC_510 SPEC_513 SPEC_517 SPEC_520 SPEC_523 SPEC_527 SPEC_530 SPEC_533 SPEC_537 SPEC_540 SPEC_543 SPEC_547 SPEC_550 SPEC_553 SPEC_557 SPEC_560 SPEC_563 SPEC_567 SPEC_570 SPEC_573 SPEC_577 SPEC_580 SPEC_583 SPEC_587 SPEC_590 SPEC_593 SPEC_597 SPEC_600 SPEC_603 SPEC_607 SPEC_610 SPEC_613 SPEC_617 SPEC_620 SPEC_623 SPEC_627 SPEC_630 SPEC_633 SPEC_637 SPEC_640 SPEC_643 SPEC_647 SPEC_650 SPEC_653 SPEC_657 SPEC_660 SPEC_663 SPEC_667 SPEC_670 SPEC_673 SPEC_677 SPEC_680 SPEC_683 SPEC_687 SPEC_690 SPEC_693 SPEC_697 SPEC_700 SPEC_703 SPEC_707 SPEC_710 SPEC_713 SPEC_717 SPEC_720 SPEC_723 SPEC_727 SPEC_730 
END_DATA_FORMAT

NUMBER_OF_SETS 1
BEGIN_DATA
0.148178 0.148178 0.148178 0.148178 0.148178 0.148178 0.148183 0.225862 0.410454 0.692318 1.204038 2.050843 3.283232 4.868858 6.926502 9.678533 13.68199 19.53264 27.86557 39.73018 55.62700 72.59849 84.45789 86.85613 80.84542 70.25506 59.68827 51.42162 45.18487 40.10215 36.36772 34.90883 35.69254 37.93602 41.06321 44.75097 48.76041 52.70378 56.30664 59.45090 61.85095 63.19427 63.69663 63.97637 64.76090 65.82965 66.64012 66.94730 67.24906 68.14785 69.60303 71.06980 72.23649 73.05652 73.87740 74.83823 75.67346 75.96825 75.68592 74.96130 74.23821 73.57867 72.64560 70.95095 68.99616 67.54601 67.06093 69.67843 79.24950 95.37343 104.8520 95.86602 80.40089 79.68116 103.7887 143.5780 156.0379 121.1718 75.00660 50.03568 45.82915 42.91426 35.09597 27.86477 23.48797 20.54847 18.43670 16.81821 15.15592 13.36798 11.79684 10.53308 9.502350 8.598960 7.789981 7.037764 6.338894 5.704765 5.147636 4.647323 4.199421 3.817738 3.481385 3.176674 2.895968 2.621267 
END_DATA
